File: Battery/cuh-eff.csv
Channel,CyCle,Step,Raw Step ID,Status,Start Voltage(V),End Voltage(V),Start Current(mA),End Current(mA),CapaCity(mAh),Endure Time(min),Relative Time(min),Absolute Time,Discharge_Capacity(mAh),Charge_Capacity(mAh),Discharge_Capacity(mAh),Net Engy_DChg(Wh),Engy_Chg(Wh),Engy_DChg(Wh)
4,1,1,1,Rest,2.1087,2.1490,0.000,0.000,0.000,60.000,60.000,03/07/2023 08:59:43,0.000,0.000,0.000,0.000000,0.000000,0.000000
4,2,4,4,CC_DChg,0.1500,-0.0328,-1.999,-1.999,5.997,180.000,596.890,03/07/2023 15:56:37,5.997,0.000,5.997,0.000195,0.000000,0.000195
4,4,7,5,CC_Chg,0.0182,0.0300,1.999,1.999,2.999,90.000,866.890,03/07/2023 21:56:37,-2.999,2.999,0.000,-0.000090,0.000090,0.000000
4,5,10,6,CC_DChg,-0.0229,-0.0337,-1.999,-1.999,2.999,90.000,1136.890,03/08/2023 02:26:37,2.999,0.000,2.999,0.000101,0.000000,0.000101
4,7,13,5,CC_Chg,0.0198,0.0316,1.998,1.999,2.998,90.000,1406.890,03/08/2023 06:56:37,-2.998,2.998,0.000,-0.000095,0.000095,0.000000
4,8,16,6,CC_DChg,-0.0244,-0.0362,-1.999,-1.999,2.999,90.000,1676.890,03/08/2023 11:26:37,2.999,0.000,2.999,0.000107,0.000000,0.000107
4,10,19,5,CC_Chg,0.0217,0.0334,1.998,1.999,2.998,90.000,1946.890,03/08/2023 15:56:37,-2.998,2.998,0.000,-0.000102,0.000102,0.000000
4,11,22,6,CC_DChg,-0.0257,-0.0378,-1.999,-1.999,2.999,90.000,2216.890,03/08/2023 20:26:37,2.999,0.000,2.999,0.000112,0.000000,0.000112
4,13,25,5,CC_Chg,0.0229,0.0344,1.999,1.999,2.999,90.000,2486.890,03/09/2023 00:56:37,-2.999,2.999,0.000,-0.000104,0.000104,0.000000
4,14,28,6,CC_DChg,-0.0269,-0.0399,-1.999,-1.999,2.999,90.000,2756.890,03/09/2023 05:26:37,2.999,0.000,2.999,0.000118,0.000000,0.000118
4,16,31,5,CC_Chg,0.0248,0.0368,1.999,1.999,2.998,90.000,3026.890,03/09/2023 09:56:37,-2.998,2.998,0.000,-0.000110,0.000110,0.000000
4,17,34,6,CC_DChg,-0.0316,-0.0449,-1.999,-1.999,2.999,90.000,3296.890,03/09/2023 14:26:37,2.999,0.000,2.999,0.000130,0.000000,0.000130
4,19,37,5,CC_Chg,0.0294,0.0406,1.999,1.999,2.998,90.000,3566.890,03/09/2023 18:56:37,-2.998,2.998,0.000,-0.000123,0.000123,0.000000
4,20,40,6,CC_DChg,-0.0319,-0.0468,-1.999,-1.999,2.999,90.000,3836.890,03/09/2023 23:26:37,2.999,0.000,2.999,0.000133,0.000000,0.000133
4,22,43,5,CC_Chg,0.0322,0.0427,1.997,1.999,2.998,90.000,4106.890,03/10/2023 03:56:37,-2.998,2.998,0.000,-0.000130,0.000130,0.000000
4,23,46,6,CC_DChg,-0.0347,-0.0514,-1.999,-1.999,2.999,90.000,4376.890,03/10/2023 08:26:37,2.999,0.000,2.999,0.000143,0.000000,0.000143
4,25,49,5,CC_Chg,0.0353,0.0452,1.998,1.999,2.998,90.000,4646.890,03/10/2023 12:56:37,-2.998,2.998,0.000,-0.000138,0.000138,0.000000
4,26,52,6,CC_DChg,-0.0372,-0.0564,-1.999,-1.999,2.999,90.000,4916.890,03/10/2023 17:26:38,2.999,0.000,2.999,0.000154,0.000000,0.000154
4,28,55,5,CC_Chg,0.0384,0.0468,1.999,1.999,2.999,90.000,5186.890,03/10/2023 21:56:38,-2.999,2.999,0.000,-0.000145,0.000145,0.000000
4,29,58,6,CC_DChg,-0.0375,-0.0561,-1.999,-1.999,2.999,90.000,5456.890,03/11/2023 02:26:38,2.999,0.000,2.999,0.000153,0.000000,0.000153
4,31,61,5,CC_Chg,0.0399,0.0480,1.999,1.999,2.999,90.000,5726.890,03/11/2023 06:56:38,-2.999,2.999,0.000,-0.000148,0.000148,0.000000
4,32,64,6,CC_DChg,-0.0387,-0.0601,-1.998,-1.999,2.999,90.000,5996.890,03/11/2023 11:26:38,2.999,0.000,2.999,0.000157,0.000000,0.000157
4,34,67,5,CC_Chg,0.0430,0.0502,1.998,1.999,2.998,90.000,6266.890,03/11/2023 15:56:38,-2.998,2.998,0.000,-0.000154,0.000154,0.000000
4,35,70,6,CC_DChg,-0.0406,-0.0632,-1.999,-1.999,2.999,90.000,6536.890,03/11/2023 20:26:38,2.999,0.000,2.999,0.000163,0.000000,0.000163
4,37,73,5,CC_Chg,0.0455,0.0505,1.999,1.999,2.999,90.000,6806.890,03/12/2023 00:56:38,-2.999,2.999,0.000,-0.000157,0.000157,0.000000
4,38,76,6,CC_DChg,-0.0412,-0.0644,-1.999,-1.999,2.999,90.000,7076.890,03/12/2023 05:26:38,2.999,0.000,2.999,0.000164,0.000000,0.000164
4,40,79,5,CC_Chg,0.0465,0.0520,1.999,1.999,2.999,90.000,7346.890,03/12/2023 09:56:38,-2.999,2.999,0.000,-0.000158,0.000158,0.000000
4,41,82,6,CC_DChg,-0.0406,-0.0654,-1.998,-1.999,2.998,90.000,7616.890,03/12/2023 14:26:38,2.998,0.000,2.998,0.000163,0.000000,0.000163
4,43,85,5,CC_Chg,0.0446,0.0530,1.999,1.999,2.998,90.000,7886.890,03/12/2023 18:56:38,-2.998,2.998,0.000,-0.000157,0.000157,0.000000
4,44,88,6,CC_DChg,-0.0424,-0.0626,-1.999,-1.999,2.999,90.000,8156.890,03/12/2023 23:26:38,2.999,0.000,2.999,0.000160,0.000000,0.000160
4,46,91,5,CC_Chg,0.0446,0.0551,1.999,1.999,2.998,90.000,8426.890,03/13/2023 03:56:38,-2.998,2.998,0.000,-0.000155,0.000155,0.000000
4,47,94,6,CC_DChg,-0.0486,-0.0638,-1.998,-1.999,2.999,90.000,8696.890,03/13/2023 08:26:38,2.999,0.000,2.999,0.000170,0.000000,0.000170
4,49,97,5,CC_Chg,0.0430,0.0595,1.998,1.999,2.998,90.000,8966.890,03/13/2023 12:56:38,-2.998,2.998,0.000,-0.000158,0.000158,0.000000
4,50,100,6,CC_DChg,-0.0505,-0.0607,-1.999,-1.999,2.999,90.000,9236.890,03/13/2023 17:26:38,2.999,0.000,2.999,0.000162,0.000000,0.000162
4,52,103,5,CC_Chg,0.0424,0.0623,1.998,1.999,2.998,90.000,9506.890,03/13/2023 21:56:38,-2.998,2.998,0.000,-0.000155,0.000155,0.000000
4,53,106,6,CC_DChg,-0.0471,-0.0548,-1.999,-1.999,2.999,90.000,9776.890,03/14/2023 02:26:38,2.999,0.000,2.999,0.000153,0.000000,0.000153
4,55,109,5,CC_Chg,0.0372,0.0551,1.999,1.999,2.998,90.000,10046.890,03/14/2023 06:56:39,-2.998,2.998,0.000,-0.000141,0.000141,0.000000
4,56,112,6,CC_DChg,-0.0443,-0.0530,-1.999,-1.999,2.999,90.000,10316.890,03/14/2023 11:26:39,2.999,0.000,2.999,0.000144,0.000000,0.000144
4,58,115,5,CC_Chg,0.0347,0.0592,1.998,1.998,2.998,90.000,10586.890,03/14/2023 15:56:39,-2.998,2.998,0.000,-0.000137,0.000137,0.000000
4,59,118,6,CC_DChg,-0.0471,-0.0489,-1.999,-1.999,2.999,90.000,10856.890,03/14/2023 20:26:39,2.999,0.000,2.999,0.000137,0.000000,0.000137
4,61,121,5,CC_Chg,0.0328,0.0635,1.999,1.999,2.998,90.000,11126.890,03/15/2023 00:56:39,-2.998,2.998,0.000,-0.000131,0.000131,0.000000
4,62,124,6,CC_DChg,-0.0477,-0.0477,-1.998,-1.999,2.999,90.000,11396.890,03/15/2023 05:26:39,2.999,0.000,2.999,0.000134,0.000000,0.000134
4,64,127,5,CC_Chg,0.0313,0.0610,1.999,1.999,2.998,90.000,11666.890,03/15/2023 09:56:39,-2.998,2.998,0.000,-0.000122,0.000122,0.000000
4,65,130,6,CC_DChg,-0.0468,-0.0458,-1.999,-1.999,2.999,90.000,11936.890,03/15/2023 14:26:39,2.999,0.000,2.999,0.000130,0.000000,0.000130
4,67,133,5,CC_Chg,0.0310,0.0595,1.997,1.999,2.998,90.000,12206.890,03/15/2023 18:56:39,-2.998,2.998,0.000,-0.000122,0.000122,0.000000
4,68,136,6,CC_DChg,-0.0443,-0.0443,-1.998,-1.999,2.999,90.000,12476.890,03/15/2023 23:26:39,2.999,0.000,2.999,0.000126,0.000000,0.000126
4,70,139,5,CC_Chg,0.0313,0.0629,1.999,1.999,2.999,90.000,12746.890,03/16/2023 03:56:39,-2.999,2.999,0.000,-0.000123,0.000123,0.000000
4,71,142,6,CC_DChg,-0.0496,-0.0461,-1.999,-1.999,2.999,90.000,13016.890,03/16/2023 08:26:39,2.999,0.000,2.999,0.000131,0.000000,0.000131
4,73,145,5,CC_Chg,0.0325,0.0672,1.999,1.999,2.999,90.000,13286.890,03/16/2023 12:56:39,-2.999,2.999,0.000,-0.000126,0.000126,0.000000
4,74,148,6,CC_DChg,-0.0514,-0.0455,-1.999,-1.999,2.999,90.000,13556.890,03/16/2023 17:26:39,2.999,0.000,2.999,0.000130,0.000000,0.000130
4,76,151,5,CC_Chg,0.0316,0.0675,1.999,1.999,2.999,90.000,13826.890,03/16/2023 21:56:39,-2.999,2.999,0.000,-0.000124,0.000124,0.000000
4,77,154,6,CC_DChg,-0.0465,-0.0449,-1.999,-1.999,2.999,90.000,14096.890,03/17/2023 02:26:39,2.999,0.000,2.999,0.000129,0.000000,0.000129
4,79,157,5,CC_Chg,0.0303,0.0585,1.999,1.999,2.999,90.000,14366.890,03/17/2023 06:56:39,-2.999,2.999,0.000,-0.000118,0.000118,0.000000
4,80,160,6,CC_DChg,-0.0393,-0.0421,-1.999,-1.999,2.999,90.000,14636.890,03/17/2023 11:26:39,2.999,0.000,2.999,0.000122,0.000000,0.000122
4,82,163,5,CC_Chg,0.0291,0.0533,1.999,1.999,2.998,90.000,14906.890,03/17/2023 15:56:39,-2.998,2.998,0.000,-0.000113,0.000113,0.000000
4,83,166,6,CC_DChg,-0.0415,-0.0418,-1.999,-1.999,2.999,90.000,15176.890,03/17/2023 20:26:40,2.999,0.000,2.999,0.000120,0.000000,0.000120
4,85,169,5,CC_Chg,0.0282,0.0542,1.999,1.999,2.999,90.000,15446.890,03/18/2023 00:56:40,-2.999,2.999,0.000,-0.000110,0.000110,0.000000
4,86,172,6,CC_DChg,-0.0396,-0.0403,-1.999,-1.999,2.999,90.000,15716.890,03/18/2023 05:26:40,2.999,0.000,2.999,0.000117,0.000000,0.000117
4,88,175,5,CC_Chg,0.0272,0.0536,1.997,1.999,2.998,90.000,15986.890,03/18/2023 09:56:40,-2.998,2.998,0.000,-0.000108,0.000108,0.000000
4,89,178,6,CC_DChg,-0.0387,-0.0406,-1.999,-1.999,2.999,90.000,16256.890,03/18/2023 14:26:40,2.999,0.000,2.999,0.000118,0.000000,0.000118
4,91,181,5,CC_Chg,0.0275,0.0520,1.998,1.999,2.998,90.000,16526.891,03/18/2023 18:56:40,-2.998,2.998,0.000,-0.000108,0.000108,0.000000
4,92,184,6,CC_DChg,-0.0409,-0.0403,-1.999,-1.999,2.999,90.000,16796.891,03/18/2023 23:26:40,2.999,0.000,2.999,0.000117,0.000000,0.000117
4,94,187,5,CC_Chg,0.0272,0.0505,1.998,1.999,2.998,90.000,17066.891,03/19/2023 03:56:40,-2.998,2.998,0.000,-0.000108,0.000108,0.000000
4,95,190,6,CC_DChg,-0.0396,-0.0399,-1.999,-1.999,2.999,90.000,17336.891,03/19/2023 08:26:40,2.999,0.000,2.999,0.000117,0.000000,0.000117
4,97,193,5,CC_Chg,0.0272,0.0542,1.999,1.998,2.998,90.000,17606.891,03/19/2023 12:56:40,-2.998,2.998,0.000,-0.000109,0.000109,0.000000
4,98,196,6,CC_DChg,-0.0390,-0.0403,-1.999,-1.999,2.999,90.000,17876.891,03/19/2023 17:26:40,2.999,0.000,2.999,0.000118,0.000000,0.000118
4,100,199,5,CC_Chg,0.0266,0.0477,1.998,1.999,2.998,90.000,18146.891,03/19/2023 21:56:40,-2.998,2.998,0.000,-0.000106,0.000106,0.000000
4,101,202,6,CC_DChg,-0.0365,-0.0393,-1.999,-1.999,2.999,90.000,18416.891,03/20/2023 02:26:40,2.999,0.000,2.999,0.000115,0.000000,0.000115
4,103,205,8,CC_Chg,0.0263,0.5000,1.999,1.999,4.893,146.850,18743.740,03/20/2023 06:56:40,-4.893,4.893,0.000,-0.000335,0.000335,0.000000